"2018081402-08_DOCQuality - RawData"
"Wavelength nm.","Abs."
200.00,0.657
201.00,0.691
202.00,0.637
203.00,0.811
204.00,0.748
205.00,0.703
206.00,0.691
207.00,0.769
208.00,0.765
209.00,0.680
210.00,0.724
211.00,0.737
212.00,0.714
213.00,0.701
214.00,0.714
215.00,0.737
216.00,0.798
217.00,0.666
218.00,0.741
219.00,0.710
220.00,0.697
221.00,0.696
222.00,0.755
223.00,0.822
224.00,0.811
225.00,0.756
226.00,0.811
227.00,0.827
228.00,0.819
229.00,0.818
230.00,0.763
231.00,0.794
232.00,0.839
233.00,0.873
234.00,0.821
235.00,0.841
236.00,0.939
237.00,0.875
238.00,0.887
239.00,0.850
240.00,0.924
241.00,0.946
242.00,0.993
243.00,0.935
244.00,0.964
245.00,0.982
246.00,0.946
247.00,1.005
248.00,0.993
249.00,0.964
250.00,1.015
251.00,0.968
252.00,1.015
253.00,1.007
254.00,1.089
255.00,1.031
256.00,1.080
257.00,1.017
258.00,1.059
259.00,1.037
260.00,1.080
261.00,1.099
262.00,1.118
263.00,1.186
264.00,1.302
265.00,1.354
266.00,1.535
267.00,1.738
268.00,1.914
269.00,2.114
270.00,2.371
271.00,2.535
272.00,2.659
273.00,2.799
274.00,2.916
275.00,2.985
276.00,3.175
277.00,3.141
278.00,3.263
279.00,3.374
280.00,3.436
281.00,3.524
282.00,3.612
283.00,3.524
284.00,3.436
285.00,3.436
286.00,3.311
287.00,3.374
288.00,3.135
289.00,3.039
290.00,2.836
291.00,2.661
292.00,2.485
293.00,2.292
294.00,2.120
295.00,1.958
296.00,1.809
297.00,1.667
298.00,1.538
299.00,1.418
300.00,1.305
301.00,1.202
302.00,1.104
303.00,1.016
304.00,0.934
305.00,0.861
306.00,0.794
307.00,0.730
308.00,0.671
309.00,0.617
310.00,0.567
311.00,0.522
312.00,0.481
313.00,0.443
314.00,0.411
315.00,0.379
316.00,0.349
317.00,0.322
318.00,0.297
319.00,0.274
320.00,0.252
321.00,0.231
322.00,0.214
323.00,0.196
324.00,0.181
325.00,0.166
326.00,0.154
327.00,0.142
328.00,0.131
329.00,0.120
330.00,0.110
331.00,0.102
332.00,0.094
333.00,0.086
334.00,0.080
335.00,0.074
336.00,0.068
337.00,0.063
338.00,0.058
339.00,0.054
340.00,0.050
341.00,0.046
342.00,0.042
343.00,0.039
344.00,0.036
345.00,0.034
346.00,0.031
347.00,0.029
348.00,0.027
349.00,0.025
350.00,0.023
351.00,0.021
352.00,0.020
353.00,0.019
354.00,0.017
355.00,0.016
356.00,0.015
357.00,0.014
358.00,0.012
359.00,0.011
360.00,0.011
361.00,0.010
362.00,0.009
363.00,0.008
364.00,0.007
365.00,0.007
366.00,0.006
367.00,0.006
368.00,0.005
369.00,0.005
370.00,0.004
371.00,0.004
372.00,0.003
373.00,0.003
374.00,0.003
375.00,0.003
376.00,0.003
377.00,0.003
378.00,0.002
379.00,0.002
380.00,0.002
381.00,0.002
382.00,0.001
383.00,0.001
384.00,0.000
385.00,-0.001
386.00,-0.001
387.00,-0.001
388.00,-0.001
389.00,-0.002
390.00,-0.002
391.00,-0.002
392.00,-0.003
393.00,-0.003
394.00,-0.003
395.00,-0.003
396.00,-0.004
397.00,-0.004
398.00,-0.004
399.00,-0.004
400.00,-0.004
401.00,-0.004
402.00,-0.005
403.00,-0.005
404.00,-0.005
405.00,-0.005
406.00,-0.005
407.00,-0.005
408.00,-0.005
409.00,-0.005
410.00,-0.005
411.00,-0.005
412.00,-0.005
413.00,-0.005
414.00,-0.005
415.00,-0.005
416.00,-0.005
417.00,-0.005
418.00,-0.005
419.00,-0.006
420.00,-0.006
421.00,-0.006
422.00,-0.006
423.00,-0.006
424.00,-0.006
425.00,-0.006
426.00,-0.006
427.00,-0.006
428.00,-0.006
429.00,-0.006
430.00,-0.006
431.00,-0.006
432.00,-0.006
433.00,-0.006
434.00,-0.006
435.00,-0.006
436.00,-0.006
437.00,-0.006
438.00,-0.007
439.00,-0.007
440.00,-0.007
441.00,-0.007
442.00,-0.007
443.00,-0.007
444.00,-0.007
445.00,-0.007
446.00,-0.007
447.00,-0.007
448.00,-0.007
449.00,-0.007
450.00,-0.007
451.00,-0.007
452.00,-0.007
453.00,-0.007
454.00,-0.007
455.00,-0.008
456.00,-0.008
457.00,-0.008
458.00,-0.008
459.00,-0.008
460.00,-0.008
461.00,-0.008
462.00,-0.008
463.00,-0.008
464.00,-0.008
465.00,-0.008
466.00,-0.008
467.00,-0.008
468.00,-0.008
469.00,-0.008
470.00,-0.008
471.00,-0.008
472.00,-0.008
473.00,-0.008
474.00,-0.008
475.00,-0.008
476.00,-0.008
477.00,-0.008
478.00,-0.009
479.00,-0.009
480.00,-0.009
481.00,-0.009
482.00,-0.009
483.00,-0.009
484.00,-0.009
485.00,-0.009
486.00,-0.009
487.00,-0.009
488.00,-0.009
489.00,-0.009
490.00,-0.009
491.00,-0.009
492.00,-0.009
493.00,-0.009
494.00,-0.009
495.00,-0.009
496.00,-0.009
497.00,-0.009
498.00,-0.009
499.00,-0.009
500.00,-0.009
501.00,-0.009
502.00,-0.009
503.00,-0.009
504.00,-0.009
505.00,-0.009
506.00,-0.009
507.00,-0.009
508.00,-0.009
509.00,-0.010
510.00,-0.009
511.00,-0.010
512.00,-0.010
513.00,-0.010
514.00,-0.010
515.00,-0.010
516.00,-0.010
517.00,-0.010
518.00,-0.010
519.00,-0.010
520.00,-0.010
521.00,-0.010
522.00,-0.010
523.00,-0.010
524.00,-0.010
525.00,-0.010
526.00,-0.010
527.00,-0.010
528.00,-0.010
529.00,-0.010
530.00,-0.010
531.00,-0.010
532.00,-0.010
533.00,-0.010
534.00,-0.010
535.00,-0.010
536.00,-0.010
537.00,-0.010
538.00,-0.010
539.00,-0.010
540.00,-0.010
541.00,-0.010
542.00,-0.010
543.00,-0.010
544.00,-0.010
545.00,-0.010
546.00,-0.010
547.00,-0.010
548.00,-0.010
549.00,-0.010
550.00,-0.010
551.00,-0.010
552.00,-0.010
553.00,-0.010
554.00,-0.010
555.00,-0.010
556.00,-0.010
557.00,-0.010
558.00,-0.010
559.00,-0.010
560.00,-0.010
561.00,-0.010
562.00,-0.010
563.00,-0.010
564.00,-0.010
565.00,-0.010
566.00,-0.010
567.00,-0.010
568.00,-0.010
569.00,-0.010
570.00,-0.010
571.00,-0.010
572.00,-0.011
573.00,-0.010
574.00,-0.010
575.00,-0.010
576.00,-0.010
577.00,-0.010
578.00,-0.010
579.00,-0.010
580.00,-0.010
581.00,-0.010
582.00,-0.010
583.00,-0.010
584.00,-0.010
585.00,-0.010
586.00,-0.010
587.00,-0.010
588.00,-0.010
589.00,-0.010
590.00,-0.010
591.00,-0.010
592.00,-0.010
593.00,-0.010
594.00,-0.010
595.00,-0.010
596.00,-0.010
597.00,-0.010
598.00,-0.010
599.00,-0.010
600.00,-0.010
601.00,-0.010
602.00,-0.009
603.00,-0.010
604.00,-0.009
605.00,-0.009
606.00,-0.009
607.00,-0.009
608.00,-0.009
609.00,-0.009
610.00,-0.009
611.00,-0.009
612.00,-0.009
613.00,-0.009
614.00,-0.009
615.00,-0.009
616.00,-0.009
617.00,-0.009
618.00,-0.009
619.00,-0.009
620.00,-0.009
621.00,-0.009
622.00,-0.009
623.00,-0.009
624.00,-0.009
625.00,-0.009
626.00,-0.009
627.00,-0.009
628.00,-0.009
629.00,-0.009
630.00,-0.009
631.00,-0.009
632.00,-0.009
633.00,-0.009
634.00,-0.009
635.00,-0.009
636.00,-0.009
637.00,-0.009
638.00,-0.009
639.00,-0.009
640.00,-0.009
641.00,-0.009
642.00,-0.009
643.00,-0.009
644.00,-0.009
645.00,-0.009
646.00,-0.009
647.00,-0.009
648.00,-0.009
649.00,-0.009
650.00,-0.009
651.00,-0.009
652.00,-0.009
653.00,-0.009
654.00,-0.009
655.00,-0.009
656.00,-0.009
657.00,-0.009
658.00,-0.009
659.00,-0.009
660.00,-0.009
661.00,-0.009
662.00,-0.009
663.00,-0.009
664.00,-0.009
665.00,-0.009
666.00,-0.009
667.00,-0.009
668.00,-0.009
669.00,-0.009
670.00,-0.009
671.00,-0.009
672.00,-0.009
673.00,-0.009
674.00,-0.009
675.00,-0.009
676.00,-0.009
677.00,-0.009
678.00,-0.009
679.00,-0.009
680.00,-0.009
681.00,-0.009
682.00,-0.009
683.00,-0.009
684.00,-0.009
685.00,-0.009
686.00,-0.009
687.00,-0.009
688.00,-0.009
689.00,-0.009
690.00,-0.009
691.00,-0.009
692.00,-0.009
693.00,-0.009
694.00,-0.009
695.00,-0.008
696.00,-0.009
697.00,-0.008
698.00,-0.008
699.00,-0.008
700.00,-0.008
701.00,-0.008
702.00,-0.008
703.00,-0.008
704.00,-0.008
705.00,-0.008
706.00,-0.008
707.00,-0.008
708.00,-0.008
709.00,-0.008
710.00,-0.008
711.00,-0.007
712.00,-0.007
713.00,-0.007
714.00,-0.007
715.00,-0.007
716.00,-0.007
717.00,-0.007
718.00,-0.006
719.00,-0.006
720.00,-0.006
721.00,-0.006
722.00,-0.005
723.00,-0.005
724.00,-0.005
725.00,-0.005
726.00,-0.005
727.00,-0.004
728.00,-0.004
729.00,-0.003
730.00,-0.003
731.00,-0.003
732.00,-0.002
733.00,-0.002
734.00,-0.001
735.00,-0.001
736.00,-0.001
737.00,-0.000
738.00,-0.000
739.00,0.000
740.00,0.000
741.00,0.000
742.00,0.000
743.00,0.000
744.00,0.000
745.00,0.000
746.00,0.000
747.00,0.000
748.00,0.001
749.00,0.001
750.00,0.001
751.00,0.001
752.00,0.001
753.00,0.001
754.00,0.001
755.00,0.001
756.00,0.001
757.00,0.001
758.00,0.001
759.00,0.001
760.00,0.001
761.00,0.001
762.00,0.001
763.00,0.001
764.00,0.001
765.00,0.001
766.00,0.001
767.00,0.000
768.00,0.000
769.00,0.000
770.00,0.000
771.00,0.000
772.00,0.000
773.00,0.000
774.00,0.000
775.00,0.000
776.00,0.000
777.00,0.000
778.00,0.000
779.00,0.000
780.00,-0.000
781.00,-0.000
782.00,-0.000
783.00,-0.000
784.00,-0.000
785.00,-0.000
786.00,-0.000
787.00,-0.001
788.00,-0.001
789.00,-0.001
790.00,-0.001
791.00,-0.001
792.00,-0.001
793.00,-0.001
794.00,-0.001
795.00,-0.001
796.00,-0.001
797.00,-0.002
798.00,-0.002
799.00,-0.002
800.00,-0.002
