"2018081402-09_DOCQuality - RawData"
"Wavelength nm.","Abs."
200.00,0.850
201.00,0.680
202.00,0.750
203.00,0.703
204.00,0.725
205.00,0.758
206.00,0.737
207.00,0.850
208.00,0.758
209.00,0.787
210.00,0.724
211.00,0.703
212.00,0.724
213.00,0.674
214.00,0.703
215.00,0.779
216.00,0.729
217.00,0.725
218.00,0.717
219.00,0.710
220.00,0.678
221.00,0.683
222.00,0.739
223.00,0.796
224.00,0.811
225.00,0.748
226.00,0.799
227.00,0.827
228.00,0.830
229.00,0.808
230.00,0.775
231.00,0.851
232.00,0.850
233.00,0.861
234.00,0.793
235.00,0.869
236.00,0.906
237.00,0.986
238.00,0.975
239.00,0.932
240.00,0.935
241.00,0.899
242.00,0.921
243.00,0.921
244.00,0.961
245.00,1.005
246.00,0.946
247.00,1.026
248.00,1.070
249.00,0.957
250.00,1.015
251.00,1.005
252.00,1.036
253.00,1.069
254.00,1.070
255.00,1.109
256.00,1.070
257.00,1.080
258.00,1.123
259.00,0.998
260.00,1.109
261.00,1.109
262.00,1.055
263.00,1.161
264.00,1.282
265.00,1.313
266.00,1.510
267.00,1.775
268.00,1.951
269.00,2.180
270.00,2.365
271.00,2.535
272.00,2.659
273.00,2.836
274.00,2.937
275.00,3.068
276.00,3.175
277.00,3.223
278.00,3.374
279.00,3.374
280.00,3.763
281.00,3.524
282.00,3.524
283.00,3.524
284.00,3.436
285.00,3.524
286.00,3.436
287.00,3.374
288.00,3.215
289.00,3.073
290.00,2.856
291.00,2.672
292.00,2.485
293.00,2.288
294.00,2.120
295.00,1.954
296.00,1.806
297.00,1.664
298.00,1.534
299.00,1.412
300.00,1.300
301.00,1.195
302.00,1.098
303.00,1.009
304.00,0.928
305.00,0.855
306.00,0.788
307.00,0.724
308.00,0.666
309.00,0.612
310.00,0.562
311.00,0.517
312.00,0.476
313.00,0.439
314.00,0.406
315.00,0.374
316.00,0.345
317.00,0.318
318.00,0.292
319.00,0.270
320.00,0.248
321.00,0.228
322.00,0.210
323.00,0.193
324.00,0.178
325.00,0.163
326.00,0.151
327.00,0.139
328.00,0.128
329.00,0.117
330.00,0.107
331.00,0.099
332.00,0.091
333.00,0.084
334.00,0.077
335.00,0.071
336.00,0.066
337.00,0.061
338.00,0.056
339.00,0.052
340.00,0.048
341.00,0.044
342.00,0.041
343.00,0.037
344.00,0.034
345.00,0.032
346.00,0.029
347.00,0.027
348.00,0.025
349.00,0.023
350.00,0.022
351.00,0.020
352.00,0.019
353.00,0.017
354.00,0.016
355.00,0.015
356.00,0.014
357.00,0.012
358.00,0.011
359.00,0.011
360.00,0.010
361.00,0.009
362.00,0.008
363.00,0.008
364.00,0.007
365.00,0.006
366.00,0.006
367.00,0.005
368.00,0.005
369.00,0.004
370.00,0.004
371.00,0.004
372.00,0.003
373.00,0.003
374.00,0.003
375.00,0.003
376.00,0.003
377.00,0.003
378.00,0.002
379.00,0.002
380.00,0.002
381.00,0.002
382.00,0.001
383.00,0.001
384.00,0.001
385.00,-0.001
386.00,-0.000
387.00,-0.001
388.00,-0.001
389.00,-0.001
390.00,-0.002
391.00,-0.002
392.00,-0.002
393.00,-0.002
394.00,-0.003
395.00,-0.003
396.00,-0.003
397.00,-0.003
398.00,-0.003
399.00,-0.004
400.00,-0.004
401.00,-0.004
402.00,-0.004
403.00,-0.004
404.00,-0.004
405.00,-0.004
406.00,-0.004
407.00,-0.004
408.00,-0.004
409.00,-0.004
410.00,-0.005
411.00,-0.005
412.00,-0.005
413.00,-0.005
414.00,-0.005
415.00,-0.005
416.00,-0.005
417.00,-0.005
418.00,-0.005
419.00,-0.005
420.00,-0.005
421.00,-0.005
422.00,-0.005
423.00,-0.005
424.00,-0.005
425.00,-0.005
426.00,-0.005
427.00,-0.005
428.00,-0.005
429.00,-0.005
430.00,-0.005
431.00,-0.005
432.00,-0.005
433.00,-0.005
434.00,-0.005
435.00,-0.005
436.00,-0.005
437.00,-0.005
438.00,-0.005
439.00,-0.005
440.00,-0.005
441.00,-0.005
442.00,-0.005
443.00,-0.006
444.00,-0.006
445.00,-0.006
446.00,-0.006
447.00,-0.006
448.00,-0.006
449.00,-0.006
450.00,-0.006
451.00,-0.006
452.00,-0.006
453.00,-0.006
454.00,-0.006
455.00,-0.006
456.00,-0.007
457.00,-0.007
458.00,-0.007
459.00,-0.007
460.00,-0.007
461.00,-0.007
462.00,-0.007
463.00,-0.007
464.00,-0.007
465.00,-0.007
466.00,-0.007
467.00,-0.007
468.00,-0.007
469.00,-0.007
470.00,-0.007
471.00,-0.007
472.00,-0.007
473.00,-0.007
474.00,-0.007
475.00,-0.007
476.00,-0.007
477.00,-0.007
478.00,-0.007
479.00,-0.007
480.00,-0.007
481.00,-0.007
482.00,-0.007
483.00,-0.007
484.00,-0.007
485.00,-0.008
486.00,-0.008
487.00,-0.008
488.00,-0.008
489.00,-0.008
490.00,-0.008
491.00,-0.008
492.00,-0.008
493.00,-0.008
494.00,-0.008
495.00,-0.008
496.00,-0.008
497.00,-0.008
498.00,-0.008
499.00,-0.008
500.00,-0.008
501.00,-0.008
502.00,-0.008
503.00,-0.008
504.00,-0.008
505.00,-0.008
506.00,-0.008
507.00,-0.008
508.00,-0.008
509.00,-0.008
510.00,-0.008
511.00,-0.008
512.00,-0.008
513.00,-0.008
514.00,-0.008
515.00,-0.008
516.00,-0.008
517.00,-0.008
518.00,-0.008
519.00,-0.008
520.00,-0.008
521.00,-0.009
522.00,-0.009
523.00,-0.009
524.00,-0.009
525.00,-0.009
526.00,-0.009
527.00,-0.009
528.00,-0.009
529.00,-0.009
530.00,-0.009
531.00,-0.009
532.00,-0.009
533.00,-0.009
534.00,-0.009
535.00,-0.009
536.00,-0.009
537.00,-0.009
538.00,-0.009
539.00,-0.009
540.00,-0.009
541.00,-0.009
542.00,-0.009
543.00,-0.009
544.00,-0.009
545.00,-0.009
546.00,-0.009
547.00,-0.009
548.00,-0.009
549.00,-0.009
550.00,-0.009
551.00,-0.009
552.00,-0.009
553.00,-0.009
554.00,-0.009
555.00,-0.009
556.00,-0.009
557.00,-0.009
558.00,-0.009
559.00,-0.009
560.00,-0.009
561.00,-0.009
562.00,-0.009
563.00,-0.009
564.00,-0.009
565.00,-0.009
566.00,-0.009
567.00,-0.009
568.00,-0.009
569.00,-0.009
570.00,-0.009
571.00,-0.009
572.00,-0.010
573.00,-0.009
574.00,-0.009
575.00,-0.009
576.00,-0.009
577.00,-0.009
578.00,-0.009
579.00,-0.009
580.00,-0.009
581.00,-0.009
582.00,-0.009
583.00,-0.009
584.00,-0.009
585.00,-0.009
586.00,-0.009
587.00,-0.009
588.00,-0.009
589.00,-0.009
590.00,-0.009
591.00,-0.009
592.00,-0.009
593.00,-0.009
594.00,-0.009
595.00,-0.009
596.00,-0.009
597.00,-0.009
598.00,-0.009
599.00,-0.009
600.00,-0.008
601.00,-0.008
602.00,-0.008
603.00,-0.008
604.00,-0.008
605.00,-0.008
606.00,-0.008
607.00,-0.008
608.00,-0.008
609.00,-0.008
610.00,-0.008
611.00,-0.008
612.00,-0.008
613.00,-0.008
614.00,-0.008
615.00,-0.008
616.00,-0.008
617.00,-0.008
618.00,-0.008
619.00,-0.008
620.00,-0.008
621.00,-0.008
622.00,-0.008
623.00,-0.008
624.00,-0.008
625.00,-0.008
626.00,-0.008
627.00,-0.008
628.00,-0.008
629.00,-0.008
630.00,-0.008
631.00,-0.008
632.00,-0.008
633.00,-0.008
634.00,-0.008
635.00,-0.008
636.00,-0.008
637.00,-0.008
638.00,-0.008
639.00,-0.008
640.00,-0.008
641.00,-0.008
642.00,-0.008
643.00,-0.008
644.00,-0.008
645.00,-0.008
646.00,-0.008
647.00,-0.008
648.00,-0.008
649.00,-0.008
650.00,-0.008
651.00,-0.008
652.00,-0.008
653.00,-0.008
654.00,-0.008
655.00,-0.008
656.00,-0.008
657.00,-0.008
658.00,-0.008
659.00,-0.008
660.00,-0.008
661.00,-0.008
662.00,-0.008
663.00,-0.008
664.00,-0.008
665.00,-0.008
666.00,-0.008
667.00,-0.008
668.00,-0.008
669.00,-0.008
670.00,-0.008
671.00,-0.008
672.00,-0.008
673.00,-0.008
674.00,-0.008
675.00,-0.008
676.00,-0.008
677.00,-0.008
678.00,-0.008
679.00,-0.008
680.00,-0.008
681.00,-0.008
682.00,-0.008
683.00,-0.008
684.00,-0.008
685.00,-0.008
686.00,-0.008
687.00,-0.008
688.00,-0.008
689.00,-0.008
690.00,-0.008
691.00,-0.008
692.00,-0.008
693.00,-0.008
694.00,-0.008
695.00,-0.008
696.00,-0.008
697.00,-0.008
698.00,-0.008
699.00,-0.008
700.00,-0.008
701.00,-0.008
702.00,-0.007
703.00,-0.007
704.00,-0.007
705.00,-0.007
706.00,-0.007
707.00,-0.007
708.00,-0.007
709.00,-0.007
710.00,-0.007
711.00,-0.007
712.00,-0.007
713.00,-0.007
714.00,-0.006
715.00,-0.006
716.00,-0.006
717.00,-0.006
718.00,-0.006
719.00,-0.005
720.00,-0.005
721.00,-0.005
722.00,-0.005
723.00,-0.005
724.00,-0.005
725.00,-0.004
726.00,-0.004
727.00,-0.004
728.00,-0.003
729.00,-0.003
730.00,-0.002
731.00,-0.002
732.00,-0.001
733.00,-0.001
734.00,-0.001
735.00,-0.000
736.00,0.000
737.00,0.000
738.00,0.001
739.00,0.001
740.00,0.001
741.00,0.001
742.00,0.001
743.00,0.001
744.00,0.001
745.00,0.001
746.00,0.001
747.00,0.001
748.00,0.001
749.00,0.001
750.00,0.001
751.00,0.001
752.00,0.001
753.00,0.001
754.00,0.001
755.00,0.001
756.00,0.001
757.00,0.001
758.00,0.001
759.00,0.001
760.00,0.001
761.00,0.001
762.00,0.001
763.00,0.001
764.00,0.001
765.00,0.001
766.00,0.001
767.00,0.001
768.00,0.001
769.00,0.001
770.00,0.001
771.00,0.001
772.00,0.001
773.00,0.001
774.00,0.001
775.00,0.001
776.00,0.001
777.00,0.001
778.00,0.001
779.00,0.001
780.00,0.000
781.00,0.000
782.00,0.000
783.00,0.000
784.00,0.000
785.00,0.000
786.00,0.000
787.00,-0.000
788.00,-0.000
789.00,-0.000
790.00,-0.000
791.00,-0.001
792.00,-0.001
793.00,-0.001
794.00,-0.001
795.00,-0.001
796.00,-0.001
797.00,-0.001
798.00,-0.001
799.00,-0.001
800.00,-0.001
