"20180815402-02_DOCQuality - RawData"
"Wavelength nm.","Abs."
200.00,0.703
201.00,0.771
202.00,0.811
203.00,0.811
204.00,0.779
205.00,0.789
206.00,0.852
207.00,0.831
208.00,0.850
209.00,0.771
210.00,0.779
211.00,0.688
212.00,0.758
213.00,0.831
214.00,0.779
215.00,0.695
216.00,0.768
217.00,0.771
218.00,0.836
219.00,0.748
220.00,0.759
221.00,0.697
222.00,0.752
223.00,0.813
224.00,0.762
225.00,0.811
226.00,0.811
227.00,0.807
228.00,0.850
229.00,0.820
230.00,0.818
231.00,0.818
232.00,0.873
233.00,0.851
234.00,0.775
235.00,0.861
236.00,0.932
237.00,0.924
238.00,0.953
239.00,0.939
240.00,0.921
241.00,0.913
242.00,0.942
243.00,1.005
244.00,1.031
245.00,0.997
246.00,0.972
247.00,1.061
248.00,1.046
249.00,0.942
250.00,1.036
251.00,1.070
252.00,1.099
253.00,1.036
254.00,1.104
255.00,1.099
256.00,1.056
257.00,1.050
258.00,1.056
259.00,1.090
260.00,1.099
261.00,1.037
262.00,1.136
263.00,1.128
264.00,1.187
265.00,1.325
266.00,1.483
267.00,1.711
268.00,1.921
269.00,2.121
270.00,2.340
271.00,2.535
272.00,2.698
273.00,2.754
274.00,2.856
275.00,2.985
276.00,3.073
277.00,3.175
278.00,3.215
279.00,3.311
280.00,3.374
281.00,3.524
282.00,3.436
283.00,3.436
284.00,3.436
285.00,3.612
286.00,3.374
287.00,3.311
288.00,3.101
289.00,3.014
290.00,2.836
291.00,2.661
292.00,2.471
293.00,2.288
294.00,2.102
295.00,1.944
296.00,1.796
297.00,1.656
298.00,1.527
299.00,1.406
300.00,1.294
301.00,1.190
302.00,1.093
303.00,1.005
304.00,0.925
305.00,0.853
306.00,0.786
307.00,0.721
308.00,0.663
309.00,0.609
310.00,0.560
311.00,0.514
312.00,0.473
313.00,0.435
314.00,0.402
315.00,0.370
316.00,0.341
317.00,0.315
318.00,0.289
319.00,0.267
320.00,0.245
321.00,0.225
322.00,0.207
323.00,0.189
324.00,0.174
325.00,0.160
326.00,0.147
327.00,0.135
328.00,0.124
329.00,0.113
330.00,0.104
331.00,0.095
332.00,0.088
333.00,0.080
334.00,0.074
335.00,0.068
336.00,0.062
337.00,0.057
338.00,0.052
339.00,0.048
340.00,0.044
341.00,0.040
342.00,0.037
343.00,0.034
344.00,0.031
345.00,0.029
346.00,0.026
347.00,0.024
348.00,0.022
349.00,0.020
350.00,0.019
351.00,0.017
352.00,0.016
353.00,0.014
354.00,0.013
355.00,0.011
356.00,0.010
357.00,0.009
358.00,0.008
359.00,0.007
360.00,0.007
361.00,0.006
362.00,0.005
363.00,0.004
364.00,0.004
365.00,0.003
366.00,0.003
367.00,0.002
368.00,0.002
369.00,0.001
370.00,0.001
371.00,0.000
372.00,0.000
373.00,-0.000
374.00,-0.000
375.00,-0.001
376.00,-0.001
377.00,-0.001
378.00,-0.001
379.00,-0.001
380.00,-0.001
381.00,-0.002
382.00,-0.002
383.00,-0.002
384.00,-0.002
385.00,-0.004
386.00,-0.003
387.00,-0.004
388.00,-0.004
389.00,-0.004
390.00,-0.005
391.00,-0.005
392.00,-0.005
393.00,-0.005
394.00,-0.006
395.00,-0.006
396.00,-0.006
397.00,-0.006
398.00,-0.006
399.00,-0.007
400.00,-0.007
401.00,-0.007
402.00,-0.007
403.00,-0.007
404.00,-0.007
405.00,-0.007
406.00,-0.007
407.00,-0.007
408.00,-0.007
409.00,-0.007
410.00,-0.007
411.00,-0.007
412.00,-0.007
413.00,-0.008
414.00,-0.008
415.00,-0.008
416.00,-0.008
417.00,-0.008
418.00,-0.008
419.00,-0.008
420.00,-0.008
421.00,-0.008
422.00,-0.008
423.00,-0.008
424.00,-0.008
425.00,-0.008
426.00,-0.008
427.00,-0.008
428.00,-0.008
429.00,-0.008
430.00,-0.008
431.00,-0.008
432.00,-0.008
433.00,-0.008
434.00,-0.008
435.00,-0.008
436.00,-0.008
437.00,-0.008
438.00,-0.008
439.00,-0.008
440.00,-0.008
441.00,-0.009
442.00,-0.008
443.00,-0.009
444.00,-0.009
445.00,-0.009
446.00,-0.009
447.00,-0.009
448.00,-0.009
449.00,-0.009
450.00,-0.009
451.00,-0.009
452.00,-0.009
453.00,-0.009
454.00,-0.009
455.00,-0.009
456.00,-0.009
457.00,-0.009
458.00,-0.009
459.00,-0.009
460.00,-0.010
461.00,-0.010
462.00,-0.010
463.00,-0.010
464.00,-0.010
465.00,-0.010
466.00,-0.010
467.00,-0.010
468.00,-0.010
469.00,-0.010
470.00,-0.010
471.00,-0.010
472.00,-0.010
473.00,-0.010
474.00,-0.010
475.00,-0.010
476.00,-0.010
477.00,-0.010
478.00,-0.010
479.00,-0.010
480.00,-0.010
481.00,-0.010
482.00,-0.010
483.00,-0.010
484.00,-0.010
485.00,-0.010
486.00,-0.010
487.00,-0.010
488.00,-0.010
489.00,-0.010
490.00,-0.010
491.00,-0.010
492.00,-0.010
493.00,-0.010
494.00,-0.010
495.00,-0.010
496.00,-0.010
497.00,-0.010
498.00,-0.010
499.00,-0.010
500.00,-0.010
501.00,-0.010
502.00,-0.010
503.00,-0.010
504.00,-0.011
505.00,-0.010
506.00,-0.011
507.00,-0.011
508.00,-0.011
509.00,-0.011
510.00,-0.011
511.00,-0.011
512.00,-0.011
513.00,-0.011
514.00,-0.011
515.00,-0.011
516.00,-0.011
517.00,-0.011
518.00,-0.011
519.00,-0.011
520.00,-0.011
521.00,-0.011
522.00,-0.011
523.00,-0.011
524.00,-0.011
525.00,-0.011
526.00,-0.011
527.00,-0.011
528.00,-0.011
529.00,-0.011
530.00,-0.011
531.00,-0.011
532.00,-0.011
533.00,-0.011
534.00,-0.011
535.00,-0.011
536.00,-0.011
537.00,-0.011
538.00,-0.011
539.00,-0.011
540.00,-0.011
541.00,-0.011
542.00,-0.011
543.00,-0.011
544.00,-0.011
545.00,-0.011
546.00,-0.011
547.00,-0.011
548.00,-0.011
549.00,-0.011
550.00,-0.011
551.00,-0.011
552.00,-0.011
553.00,-0.011
554.00,-0.011
555.00,-0.011
556.00,-0.011
557.00,-0.011
558.00,-0.011
559.00,-0.011
560.00,-0.011
561.00,-0.011
562.00,-0.011
563.00,-0.011
564.00,-0.011
565.00,-0.011
566.00,-0.011
567.00,-0.011
568.00,-0.011
569.00,-0.011
570.00,-0.011
571.00,-0.011
572.00,-0.012
573.00,-0.011
574.00,-0.011
575.00,-0.011
576.00,-0.011
577.00,-0.011
578.00,-0.011
579.00,-0.011
580.00,-0.011
581.00,-0.011
582.00,-0.011
583.00,-0.011
584.00,-0.011
585.00,-0.011
586.00,-0.011
587.00,-0.011
588.00,-0.011
589.00,-0.011
590.00,-0.011
591.00,-0.011
592.00,-0.011
593.00,-0.011
594.00,-0.011
595.00,-0.011
596.00,-0.010
597.00,-0.010
598.00,-0.010
599.00,-0.010
600.00,-0.010
601.00,-0.010
602.00,-0.010
603.00,-0.010
604.00,-0.010
605.00,-0.010
606.00,-0.010
607.00,-0.010
608.00,-0.010
609.00,-0.010
610.00,-0.010
611.00,-0.010
612.00,-0.010
613.00,-0.010
614.00,-0.010
615.00,-0.010
616.00,-0.010
617.00,-0.010
618.00,-0.010
619.00,-0.010
620.00,-0.010
621.00,-0.010
622.00,-0.010
623.00,-0.010
624.00,-0.010
625.00,-0.010
626.00,-0.010
627.00,-0.010
628.00,-0.010
629.00,-0.010
630.00,-0.010
631.00,-0.010
632.00,-0.010
633.00,-0.010
634.00,-0.010
635.00,-0.010
636.00,-0.010
637.00,-0.010
638.00,-0.010
639.00,-0.010
640.00,-0.010
641.00,-0.010
642.00,-0.010
643.00,-0.010
644.00,-0.010
645.00,-0.010
646.00,-0.010
647.00,-0.010
648.00,-0.010
649.00,-0.010
650.00,-0.010
651.00,-0.010
652.00,-0.010
653.00,-0.010
654.00,-0.010
655.00,-0.010
656.00,-0.010
657.00,-0.010
658.00,-0.010
659.00,-0.010
660.00,-0.010
661.00,-0.010
662.00,-0.010
663.00,-0.010
664.00,-0.010
665.00,-0.010
666.00,-0.010
667.00,-0.010
668.00,-0.010
669.00,-0.010
670.00,-0.010
671.00,-0.010
672.00,-0.010
673.00,-0.010
674.00,-0.010
675.00,-0.010
676.00,-0.010
677.00,-0.010
678.00,-0.010
679.00,-0.010
680.00,-0.010
681.00,-0.010
682.00,-0.010
683.00,-0.009
684.00,-0.010
685.00,-0.009
686.00,-0.009
687.00,-0.009
688.00,-0.009
689.00,-0.009
690.00,-0.009
691.00,-0.009
692.00,-0.009
693.00,-0.009
694.00,-0.009
695.00,-0.009
696.00,-0.009
697.00,-0.009
698.00,-0.009
699.00,-0.009
700.00,-0.009
701.00,-0.009
702.00,-0.009
703.00,-0.009
704.00,-0.009
705.00,-0.009
706.00,-0.009
707.00,-0.008
708.00,-0.008
709.00,-0.008
710.00,-0.008
711.00,-0.008
712.00,-0.008
713.00,-0.008
714.00,-0.008
715.00,-0.007
716.00,-0.007
717.00,-0.007
718.00,-0.007
719.00,-0.007
720.00,-0.007
721.00,-0.006
722.00,-0.006
723.00,-0.006
724.00,-0.006
725.00,-0.005
726.00,-0.005
727.00,-0.005
728.00,-0.005
729.00,-0.004
730.00,-0.004
731.00,-0.003
732.00,-0.003
733.00,-0.002
734.00,-0.002
735.00,-0.002
736.00,-0.001
737.00,-0.001
738.00,-0.001
739.00,-0.000
740.00,-0.000
741.00,-0.000
742.00,-0.000
743.00,-0.000
744.00,-0.000
745.00,-0.000
746.00,-0.000
747.00,0.000
748.00,0.000
749.00,0.000
750.00,0.000
751.00,0.000
752.00,0.000
753.00,0.000
754.00,0.000
755.00,0.000
756.00,0.000
757.00,0.000
758.00,0.000
759.00,0.000
760.00,0.000
761.00,0.000
762.00,0.000
763.00,0.000
764.00,0.000
765.00,0.000
766.00,0.000
767.00,0.000
768.00,0.000
769.00,0.000
770.00,0.000
771.00,0.000
772.00,-0.000
773.00,-0.000
774.00,-0.000
775.00,-0.000
776.00,-0.000
777.00,-0.000
778.00,-0.000
779.00,-0.000
780.00,-0.001
781.00,-0.001
782.00,-0.001
783.00,-0.001
784.00,-0.001
785.00,-0.001
786.00,-0.001
787.00,-0.001
788.00,-0.001
789.00,-0.001
790.00,-0.001
791.00,-0.001
792.00,-0.001
793.00,-0.002
794.00,-0.002
795.00,-0.002
796.00,-0.002
797.00,-0.002
798.00,-0.002
799.00,-0.002
800.00,-0.002
